[Header]
Application Name	LabSolutions
Version	5.98SP1
Data File Name	C:\LabSolutions\Data\spiroindane_pyrrolidines\level1_03302021_1.lcd
Output Date	4/9/2021
Output Time	4:33:07 PM

[Configuration]
Instrument Name	MDCM-420DJB2-Instrument1
Instrument #	1
Line #	1
# of Detectors	1
Detector ID	Detector A
Detector Name	Detector A
# of Channels	2

[LC Chromatogram(Detector A-Ch1)]
Interval(msec)	500
# of Points	961
Start Time(min)	0.000
End Time(min)	8.000
Intensity Units	mAU
Intensity Multiplier	0.001
Wavelength(nm)	254nm
R.Time (min)	Intensity
0.00000	-11
0.00833	-11
0.01667	-0
0.02500	-1
0.03333	-3
0.04167	-4
0.05000	-4
0.05833	-3
0.06667	-1
0.07500	1
0.08333	3
0.09167	3
0.10000	1
0.10833	-0
0.11667	-2
0.12500	-3
0.13333	-3
0.14167	-3
0.15000	-2
0.15833	-1
0.16667	0
0.17500	1
0.18333	3
0.19167	3
0.20000	4
0.20833	3
0.21667	3
0.22500	2
0.23333	1
0.24167	-1
0.25000	-2
0.25833	-3
0.26667	-4
0.27500	-4
0.28333	-3
0.29167	-3
0.30000	-2
0.30833	-2
0.31667	-2
0.32500	-2
0.33333	-0
0.34167	3
0.35000	6
0.35833	11
0.36667	18
0.37500	27
0.38333	37
0.39167	48
0.40000	58
0.40833	64
0.41667	66
0.42500	66
0.43333	68
0.44167	71
0.45000	74
0.45833	78
0.46667	79
0.47500	78
0.48333	75
0.49167	72
0.50000	70
0.50833	67
0.51667	65
0.52500	63
0.53333	63
0.54167	78
0.55000	123
0.55833	214
0.56667	380
0.57500	613
0.58333	831
0.59167	997
0.60000	1082
0.60833	1057
0.61667	947
0.62500	816
0.63333	687
0.64167	571
0.65000	467
0.65833	374
0.66667	295
0.67500	227
0.68333	174
0.69167	131
0.70000	99
0.70833	76
0.71667	61
0.72500	52
0.73333	47
0.74167	44
0.75000	42
0.75833	40
0.76667	38
0.77500	37
0.78333	36
0.79167	35
0.80000	33
0.80833	32
0.81667	31
0.82500	31
0.83333	31
0.84167	32
0.85000	33
0.85833	34
0.86667	35
0.87500	35
0.88333	34
0.89167	34
0.90000	32
0.90833	30
0.91667	27
0.92500	25
0.93333	25
0.94167	27
0.95000	28
0.95833	29
0.96667	28
0.97500	26
0.98333	23
0.99167	21
1.00000	21
1.00833	21
1.01667	22
1.02500	22
1.03333	23
1.04167	23
1.05000	23
1.05833	24
1.06667	25
1.07500	24
1.08333	22
1.09167	20
1.10000	17
1.10833	15
1.11667	14
1.12500	13
1.13333	13
1.14167	13
1.15000	13
1.15833	12
1.16667	11
1.17500	10
1.18333	10
1.19167	10
1.20000	11
1.20833	11
1.21667	11
1.22500	11
1.23333	10
1.24167	10
1.25000	10
1.25833	8
1.26667	7
1.27500	5
1.28333	3
1.29167	2
1.30000	1
1.30833	0
1.31667	1
1.32500	3
1.33333	6
1.34167	9
1.35000	13
1.35833	16
1.36667	20
1.37500	25
1.38333	30
1.39167	35
1.40000	40
1.40833	45
1.41667	49
1.42500	54
1.43333	60
1.44167	67
1.45000	75
1.45833	84
1.46667	91
1.47500	97
1.48333	102
1.49167	107
1.50000	113
1.50833	119
1.51667	127
1.52500	134
1.53333	143
1.54167	152
1.55000	164
1.55833	176
1.56667	189
1.57500	205
1.58333	221
1.59167	236
1.60000	252
1.60833	267
1.61667	284
1.62500	300
1.63333	318
1.64167	336
1.65000	356
1.65833	376
1.66667	397
1.67500	419
1.68333	441
1.69167	465
1.70000	490
1.70833	516
1.71667	544
1.72500	572
1.73333	602
1.74167	633
1.75000	665
1.75833	698
1.76667	730
1.77500	764
1.78333	797
1.79167	830
1.80000	862
1.80833	893
1.81667	922
1.82500	949
1.83333	974
1.84167	996
1.85000	1012
1.85833	1023
1.86667	1026
1.87500	1022
1.88333	1019
1.89167	1020
1.90000	1029
1.90833	1049
1.91667	1080
1.92500	1117
1.93333	1159
1.94167	1202
1.95000	1246
1.95833	1289
1.96667	1327
1.97500	1362
1.98333	1393
1.99167	1421
2.00000	1445
2.00833	1463
2.01667	1478
2.02500	1484
2.03333	1483
2.04167	1478
2.05000	1471
2.05833	1467
2.06667	1468
2.07500	1475
2.08333	1485
2.09167	1496
2.10000	1506
2.10833	1514
2.11667	1518
2.12500	1519
2.13333	1518
2.14167	1517
2.15000	1514
2.15833	1511
2.16667	1507
2.17500	1502
2.18333	1498
2.19167	1495
2.20000	1495
2.20833	1497
2.21667	1504
2.22500	1517
2.23333	1541
2.24167	1581
2.25000	1649
2.25833	1753
2.26667	1904
2.27500	2116
2.28333	2385
2.29167	2727
2.30000	3114
2.30833	3529
2.31667	3923
2.32500	4157
2.33333	4180
2.34167	4001
2.35000	3614
2.35833	3118
2.36667	2658
2.37500	2271
2.38333	1988
2.39167	1804
2.40000	1694
2.40833	1633
2.41667	1604
2.42500	1595
2.43333	1598
2.44167	1607
2.45000	1620
2.45833	1639
2.46667	1670
2.47500	1720
2.48333	1806
2.49167	1946
2.50000	2148
2.50833	2430
2.51667	2779
2.52500	3138
2.53333	3484
2.54167	3711
2.55000	3735
2.55833	3574
2.56667	3262
2.57500	2835
2.58333	2425
2.59167	2083
2.60000	1824
2.60833	1648
2.61667	1537
2.62500	1469
2.63333	1430
2.64167	1408
2.65000	1396
2.65833	1391
2.66667	1390
2.67500	1391
2.68333	1393
2.69167	1395
2.70000	1398
2.70833	1398
2.71667	1396
2.72500	1391
2.73333	1384
2.74167	1378
2.75000	1373
2.75833	1371
2.76667	1375
2.77500	1388
2.78333	1412
2.79167	1451
2.80000	1501
2.80833	1563
2.81667	1633
2.82500	1697
2.83333	1750
2.84167	1781
2.85000	1784
2.85833	1762
2.86667	1722
2.87500	1666
2.88333	1609
2.89167	1554
2.90000	1506
2.90833	1469
2.91667	1440
2.92500	1421
2.93333	1408
2.94167	1401
2.95000	1398
2.95833	1398
2.96667	1400
2.97500	1402
2.98333	1404
2.99167	1405
3.00000	1405
3.00833	1404
3.01667	1404
3.02500	1404
3.03333	1404
3.04167	1405
3.05000	1406
3.05833	1408
3.06667	1409
3.07500	1411
3.08333	1413
3.09167	1414
3.10000	1415
3.10833	1414
3.11667	1412
3.12500	1409
3.13333	1403
3.14167	1398
3.15000	1393
3.15833	1391
3.16667	1390
3.17500	1390
3.18333	1391
3.19167	1390
3.20000	1387
3.20833	1382
3.21667	1374
3.22500	1365
3.23333	1355
3.24167	1346
3.25000	1337
3.25833	1328
3.26667	1321
3.27500	1314
3.28333	1308
3.29167	1303
3.30000	1298
3.30833	1296
3.31667	1296
3.32500	1297
3.33333	1300
3.34167	1302
3.35000	1306
3.35833	1309
3.36667	1314
3.37500	1320
3.38333	1326
3.39167	1332
3.40000	1338
3.40833	1343
3.41667	1348
3.42500	1352
3.43333	1356
3.44167	1359
3.45000	1359
3.45833	1358
3.46667	1356
3.47500	1355
3.48333	1356
3.49167	1361
3.50000	1370
3.50833	1389
3.51667	1421
3.52500	1475
3.53333	1563
3.54167	1708
3.55000	1947
3.55833	2328
3.56667	2946
3.57500	3899
3.58333	5334
3.59167	7470
3.60000	10391
3.60833	14362
3.61667	19421
3.62500	25296
3.63333	32107
3.64167	38895
3.65000	45243
3.65833	50557
3.66667	53813
3.67500	54863
3.68333	53602
3.69167	49900
3.70000	44588
3.70833	38257
3.71667	31350
3.72500	24905
3.73333	19020
3.74167	14119
3.75000	10273
3.75833	7343
3.76667	5270
3.77500	3835
3.78333	2890
3.79167	2289
3.80000	1915
3.80833	1692
3.81667	1560
3.82500	1485
3.83333	1445
3.84167	1424
3.85000	1416
3.85833	1413
3.86667	1413
3.87500	1414
3.88333	1412
3.89167	1408
3.90000	1400
3.90833	1391
3.91667	1380
3.92500	1367
3.93333	1353
3.94167	1339
3.95000	1326
3.95833	1314
3.96667	1305
3.97500	1297
3.98333	1290
3.99167	1283
4.00000	1277
4.00833	1273
4.01667	1271
4.02500	1270
4.03333	1271
4.04167	1272
4.05000	1273
4.05833	1273
4.06667	1273
4.07500	1275
4.08333	1278
4.09167	1282
4.10000	1286
4.10833	1290
4.11667	1293
4.12500	1295
4.13333	1295
4.14167	1293
4.15000	1290
4.15833	1285
4.16667	1280
4.17500	1274
4.18333	1267
4.19167	1261
4.20000	1254
4.20833	1248
4.21667	1242
4.22500	1236
4.23333	1231
4.24167	1228
4.25000	1225
4.25833	1222
4.26667	1221
4.27500	1221
4.28333	1221
4.29167	1222
4.30000	1222
4.30833	1223
4.31667	1222
4.32500	1220
4.33333	1218
4.34167	1217
4.35000	1215
4.35833	1215
4.36667	1215
4.37500	1215
4.38333	1215
4.39167	1215
4.40000	1213
4.40833	1212
4.41667	1212
4.42500	1211
4.43333	1211
4.44167	1210
4.45000	1210
4.45833	1210
4.46667	1211
4.47500	1212
4.48333	1214
4.49167	1215
4.50000	1215
4.50833	1214
4.51667	1213
4.52500	1212
4.53333	1211
4.54167	1209
4.55000	1207
4.55833	1205
4.56667	1203
4.57500	1202
4.58333	1201
4.59167	1201
4.60000	1201
4.60833	1200
4.61667	1197
4.62500	1194
4.63333	1191
4.64167	1189
4.65000	1190
4.65833	1192
4.66667	1194
4.67500	1196
4.68333	1197
4.69167	1196
4.70000	1194
4.70833	1191
4.71667	1189
4.72500	1188
4.73333	1189
4.74167	1190
4.75000	1191
4.75833	1192
4.76667	1192
4.77500	1192
4.78333	1190
4.79167	1189
4.80000	1189
4.80833	1189
4.81667	1189
4.82500	1189
4.83333	1189
4.84167	1189
4.85000	1188
4.85833	1188
4.86667	1187
4.87500	1187
4.88333	1188
4.89167	1188
4.90000	1188
4.90833	1188
4.91667	1187
4.92500	1186
4.93333	1185
4.94167	1186
4.95000	1189
4.95833	1193
4.96667	1196
4.97500	1198
4.98333	1200
4.99167	1201
5.00000	1200
5.00833	1200
5.01667	1200
5.02500	1201
5.03333	1202
5.04167	1204
5.05000	1206
5.05833	1208
5.06667	1210
5.07500	1211
5.08333	1210
5.09167	1208
5.10000	1206
5.10833	1205
5.11667	1204
5.12500	1204
5.13333	1205
5.14167	1205
5.15000	1205
5.15833	1204
5.16667	1202
5.17500	1200
5.18333	1199
5.19167	1199
5.20000	1200
5.20833	1203
5.21667	1205
5.22500	1208
5.23333	1212
5.24167	1216
5.25000	1222
5.25833	1229
5.26667	1240
5.27500	1255
5.28333	1276
5.29167	1306
5.30000	1347
5.30833	1402
5.31667	1476
5.32500	1572
5.33333	1699
5.34167	1859
5.35000	2062
5.35833	2311
5.36667	2610
5.37500	2971
5.38333	3378
5.39167	3849
5.40000	4361
5.40833	4904
5.41667	5478
5.42500	6032
5.43333	6573
5.44167	7055
5.45000	7458
5.45833	7772
5.46667	7960
5.47500	8021
5.48333	7953
5.49167	7744
5.50000	7424
5.50833	7004
5.51667	6496
5.52500	5953
5.53333	5370
5.54167	4798
5.55000	4250
5.55833	3735
5.56667	3283
5.57500	2882
5.58333	2549
5.59167	2275
5.60000	2056
5.60833	1891
5.61667	1766
5.62500	1677
5.63333	1615
5.64167	1573
5.65000	1545
5.65833	1527
5.66667	1515
5.67500	1507
5.68333	1500
5.69167	1492
5.70000	1484
5.70833	1473
5.71667	1460
5.72500	1447
5.73333	1432
5.74167	1419
5.75000	1407
5.75833	1396
5.76667	1387
5.77500	1379
5.78333	1372
5.79167	1366
5.80000	1360
5.80833	1355
5.81667	1350
5.82500	1346
5.83333	1344
5.84167	1343
5.85000	1344
5.85833	1345
5.86667	1348
5.87500	1352
5.88333	1356
5.89167	1360
5.90000	1364
5.90833	1367
5.91667	1371
5.92500	1374
5.93333	1379
5.94167	1385
5.95000	1391
5.95833	1398
5.96667	1406
5.97500	1416
5.98333	1427
5.99167	1443
6.00000	1462
6.00833	1489
6.01667	1525
6.02500	1571
6.03333	1633
6.04167	1712
6.05000	1814
6.05833	1941
6.06667	2093
6.07500	2277
6.08333	2481
6.09167	2710
6.10000	2951
6.10833	3194
6.11667	3433
6.12500	3641
6.13333	3814
6.14167	3935
6.15000	3990
6.15833	3981
6.16667	3904
6.17500	3762
6.18333	3577
6.19167	3351
6.20000	3107
6.20833	2864
6.21667	2624
6.22500	2411
6.23333	2221
6.24167	2063
6.25000	1936
6.25833	1838
6.26667	1766
6.27500	1713
6.28333	1675
6.29167	1648
6.30000	1629
6.30833	1616
6.31667	1608
6.32500	1603
6.33333	1601
6.34167	1601
6.35000	1602
6.35833	1603
6.36667	1604
6.37500	1605
6.38333	1607
6.39167	1609
6.40000	1611
6.40833	1613
6.41667	1613
6.42500	1614
6.43333	1614
6.44167	1614
6.45000	1615
6.45833	1616
6.46667	1617
6.47500	1619
6.48333	1621
6.49167	1622
6.50000	1625
6.50833	1626
6.51667	1628
6.52500	1630
6.53333	1634
6.54167	1638
6.55000	1642
6.55833	1647
6.56667	1652
6.57500	1657
6.58333	1667
6.59167	1683
6.60000	1715
6.60833	1772
6.61667	1866
6.62500	2019
6.63333	2257
6.64167	2600
6.65000	3097
6.65833	3756
6.66667	4591
6.67500	5627
6.68333	6764
6.69167	8004
6.70000	9214
6.70833	10254
6.71667	11089
6.72500	11578
6.73333	11653
6.74167	11304
6.75000	10601
6.75833	9560
6.76667	8339
6.77500	7107
6.78333	6010
6.79167	5027
6.80000	4177
6.80833	3496
6.81667	2957
6.82500	2561
6.83333	2281
6.84167	2090
6.85000	1969
6.85833	1893
6.86667	1850
6.87500	1830
6.88333	1823
6.89167	1823
6.90000	1827
6.90833	1832
6.91667	1837
6.92500	1841
6.93333	1846
6.94167	1851
6.95000	1854
6.95833	1855
6.96667	1855
6.97500	1855
6.98333	1856
6.99167	1860
7.00000	1868
7.00833	1880
7.01667	1898
7.02500	1921
7.03333	1952
7.04167	1989
7.05000	2033
7.05833	2082
7.06667	2130
7.07500	2176
7.08333	2212
7.09167	2233
7.10000	2239
7.10833	2228
7.11667	2200
7.12500	2162
7.13333	2115
7.14167	2067
7.15000	2023
7.15833	1986
7.16667	1957
7.17500	1937
7.18333	1924
7.19167	1919
7.20000	1920
7.20833	1925
7.21667	1934
7.22500	1944
7.23333	1953
7.24167	1961
7.25000	1968
7.25833	1974
7.26667	1976
7.27500	1973
7.28333	1967
7.29167	1958
7.30000	1947
7.30833	1935
7.31667	1923
7.32500	1913
7.33333	1903
7.34167	1894
7.35000	1889
7.35833	1886
7.36667	1884
7.37500	1884
7.38333	1884
7.39167	1883
7.40000	1882
7.40833	1882
7.41667	1882
7.42500	1883
7.43333	1884
7.44167	1885
7.45000	1887
7.45833	1887
7.46667	1887
7.47500	1887
7.48333	1888
7.49167	1890
7.50000	1893
7.50833	1896
7.51667	1898
7.52500	1899
7.53333	1900
7.54167	1900
7.55000	1901
7.55833	1903
7.56667	1904
7.57500	1905
7.58333	1903
7.59167	1901
7.60000	1899
7.60833	1899
7.61667	1902
7.62500	1909
7.63333	1922
7.64167	1938
7.65000	1958
7.65833	1982
7.66667	2007
7.67500	2035
7.68333	2061
7.69167	2084
7.70000	2102
7.70833	2113
7.71667	2115
7.72500	2108
7.73333	2092
7.74167	2070
7.75000	2044
7.75833	2015
7.76667	1989
7.77500	1965
7.78333	1945
7.79167	1931
7.80000	1921
7.80833	1919
7.81667	1922
7.82500	1930
7.83333	1942
7.84167	1956
7.85000	1971
7.85833	1985
7.86667	1997
7.87500	2006
7.88333	2012
7.89167	2016
7.90000	2017
7.90833	2016
7.91667	2013
7.92500	2009
7.93333	2004
7.94167	1999
7.95000	1994
7.95833	1989
7.96667	1984
7.97500	1977
7.98333	1970
7.99167	1962
8.00000	1956

[LC Chromatogram(Detector A-Ch2)]
Interval(msec)	500
# of Points	961
Start Time(min)	0.000
End Time(min)	8.000
Intensity Units	mAU
Intensity Multiplier	0.001
Wavelength(nm)	220nm
R.Time (min)	Intensity
0.00000	-267
0.00833	-267
0.01667	0
0.02500	-3
0.03333	-9
0.04167	-13
0.05000	-17
0.05833	-20
0.06667	-25
0.07500	-32
0.08333	-40
0.09167	-48
0.10000	-54
0.10833	-59
0.11667	-67
0.12500	-77
0.13333	-83
0.14167	-80
0.15000	-66
0.15833	-44
0.16667	-17
0.17500	7
0.18333	26
0.19167	39
0.20000	50
0.20833	58
0.21667	68
0.22500	79
0.23333	94
0.24167	112
0.25000	128
0.25833	136
0.26667	134
0.27500	128
0.28333	121
0.29167	117
0.30000	124
0.30833	138
0.31667	150
0.32500	158
0.33333	159
0.34167	154
0.35000	147
0.35833	149
0.36667	161
0.37500	181
0.38333	203
0.39167	201
0.40000	145
0.40833	59
0.41667	24
0.42500	74
0.43333	200
0.44167	399
0.45000	608
0.45833	730
0.46667	754
0.47500	721
0.48333	656
0.49167	591
0.50000	545
0.50833	520
0.51667	503
0.52500	498
0.53333	549
0.54167	702
0.55000	977
0.55833	1410
0.56667	1880
0.57500	1869
0.58333	1066
0.59167	-385
0.60000	-2377
0.60833	-4558
0.61667	-6128
0.62500	-6849
0.63333	-6840
0.64167	-6207
0.65000	-5216
0.65833	-4161
0.66667	-3131
0.67500	-2256
0.68333	-1543
0.69167	-997
0.70000	-613
0.70833	-352
0.71667	-183
0.72500	-72
0.73333	-1
0.74167	46
0.75000	78
0.75833	97
0.76667	108
0.77500	109
0.78333	100
0.79167	85
0.80000	71
0.80833	59
0.81667	54
0.82500	55
0.83333	60
0.84167	68
0.85000	79
0.85833	95
0.86667	117
0.87500	140
0.88333	162
0.89167	178
0.90000	186
0.90833	185
0.91667	184
0.92500	185
0.93333	191
0.94167	203
0.95000	220
0.95833	234
0.96667	244
0.97500	246
0.98333	241
0.99167	231
1.00000	222
1.00833	213
1.01667	207
1.02500	203
1.03333	203
1.04167	210
1.05000	222
1.05833	239
1.06667	258
1.07500	270
1.08333	271
1.09167	264
1.10000	255
1.10833	246
1.11667	238
1.12500	232
1.13333	227
1.14167	225
1.15000	222
1.15833	217
1.16667	209
1.17500	198
1.18333	181
1.19167	168
1.20000	165
1.20833	172
1.21667	185
1.22500	202
1.23333	213
1.24167	213
1.25000	203
1.25833	184
1.26667	158
1.27500	126
1.28333	87
1.29167	42
1.30000	-11
1.30833	-73
1.31667	-142
1.32500	-221
1.33333	-305
1.34167	-394
1.35000	-491
1.35833	-596
1.36667	-714
1.37500	-838
1.38333	-974
1.39167	-1114
1.40000	-1259
1.40833	-1410
1.41667	-1567
1.42500	-1737
1.43333	-1914
1.44167	-2104
1.45000	-2305
1.45833	-2516
1.46667	-2744
1.47500	-2970
1.48333	-3207
1.49167	-3474
1.50000	-3747
1.50833	-4005
1.51667	-4250
1.52500	-4513
1.53333	-4800
1.54167	-5095
1.55000	-5372
1.55833	-5638
1.56667	-5908
1.57500	-6176
1.58333	-6455
1.59167	-6739
1.60000	-7030
1.60833	-7332
1.61667	-7628
1.62500	-7927
1.63333	-8221
1.64167	-8524
1.65000	-8838
1.65833	-9157
1.66667	-9490
1.67500	-9813
1.68333	-10130
1.69167	-10437
1.70000	-10736
1.70833	-11035
1.71667	-11324
1.72500	-11617
1.73333	-11902
1.74167	-12185
1.75000	-12470
1.75833	-12762
1.76667	-13073
1.77500	-13389
1.78333	-13723
1.79167	-14071
1.80000	-14439
1.80833	-14836
1.81667	-15248
1.82500	-15691
1.83333	-16141
1.84167	-16601
1.85000	-17070
1.85833	-17538
1.86667	-18024
1.87500	-18512
1.88333	-19025
1.89167	-19546
1.90000	-20072
1.90833	-20608
1.91667	-21128
1.92500	-21652
1.93333	-22161
1.94167	-22668
1.95000	-23173
1.95833	-23670
1.96667	-24179
1.97500	-24684
1.98333	-25209
1.99167	-25737
2.00000	-26268
2.00833	-26812
2.01667	-27356
2.02500	-27926
2.03333	-28494
2.04167	-29070
2.05000	-29644
2.05833	-30192
2.06667	-30732
2.07500	-31247
2.08333	-31760
2.09167	-32263
2.10000	-32757
2.10833	-33256
2.11667	-33748
2.12500	-34258
2.13333	-34765
2.14167	-35276
2.15000	-35786
2.15833	-36275
2.16667	-36760
2.17500	-37224
2.18333	-37689
2.19167	-38140
2.20000	-38574
2.20833	-38992
2.21667	-39364
2.22500	-39694
2.23333	-39944
2.24167	-40088
2.25000	-40090
2.25833	-39867
2.26667	-39358
2.27500	-38465
2.28333	-37039
2.29167	-35005
2.30000	-32153
2.30833	-28692
2.31667	-25439
2.32500	-22725
2.33333	-21502
2.34167	-22537
2.35000	-25373
2.35833	-29206
2.36667	-33605
2.37500	-37453
2.38333	-40349
2.39167	-42356
2.40000	-43646
2.40833	-44442
2.41667	-44913
2.42500	-45182
2.43333	-45322
2.44167	-45376
2.45000	-45354
2.45833	-45237
2.46667	-44991
2.47500	-44514
2.48333	-43691
2.49167	-42418
2.50000	-40491
2.50833	-37881
2.51667	-34719
2.52500	-31014
2.53333	-27742
2.54167	-25573
2.55000	-24837
2.55833	-26043
2.56667	-29079
2.57500	-32821
2.58333	-36786
2.59167	-40351
2.60000	-43038
2.60833	-44911
2.61667	-46121
2.62500	-46867
2.63333	-47315
2.64167	-47583
2.65000	-47749
2.65833	-47860
2.66667	-47944
2.67500	-48015
2.68333	-48080
2.69167	-48140
2.70000	-48195
2.70833	-48244
2.71667	-48278
2.72500	-48297
2.73333	-48304
2.74167	-48301
2.75000	-48295
2.75833	-48290
2.76667	-48288
2.77500	-48291
2.78333	-48296
2.79167	-48304
2.80000	-48308
2.80833	-48308
2.81667	-48298
2.82500	-48277
2.83333	-48255
2.84167	-48238
2.85000	-48232
2.85833	-48246
2.86667	-48281
2.87500	-48331
2.88333	-48392
2.89167	-48454
2.90000	-48509
2.90833	-48556
2.91667	-48594
2.92500	-48625
2.93333	-48652
2.94167	-48678
2.95000	-48703
2.95833	-48723
2.96667	-48740
2.97500	-48758
2.98333	-48781
2.99167	-48807
3.00000	-48837
3.00833	-48868
3.01667	-48893
3.02500	-48913
3.03333	-48931
3.04167	-48952
3.05000	-48976
3.05833	-49004
3.06667	-49037
3.07500	-49067
3.08333	-49092
3.09167	-49112
3.10000	-49127
3.10833	-49138
3.11667	-49145
3.12500	-49148
3.13333	-49143
3.14167	-49124
3.15000	-49092
3.15833	-49053
3.16667	-49007
3.17500	-48969
3.18333	-48943
3.19167	-48928
3.20000	-48924
3.20833	-48925
3.21667	-48925
3.22500	-48921
3.23333	-48913
3.24167	-48905
3.25000	-48902
3.25833	-48914
3.26667	-48945
3.27500	-48993
3.28333	-49058
3.29167	-49130
3.30000	-49198
3.30833	-49258
3.31667	-49302
3.32500	-49329
3.33333	-49343
3.34167	-49347
3.35000	-49344
3.35833	-49336
3.36667	-49323
3.37500	-49304
3.38333	-49279
3.39167	-49250
3.40000	-49219
3.40833	-49186
3.41667	-49153
3.42500	-49122
3.43333	-49101
3.44167	-49096
3.45000	-49106
3.45833	-49129
